File: EISPOT_#2.DTA
EXPLAIN
TAG	EISPOT
TITLE	LABEL	Potentiostatic EIS	Test Identifier
DATE	LABEL	15-1-2024	Date
TIME	LABEL	12:30:25	Time
NOTES	NOTES	1	Notes...

PSTAT	PSTAT	REF3000-46118	Potentiostat
VDC	POTEN	0.00000E+000	T	DC Voltage (V)
FREQINIT	QUANT	1.00000E+004	Initial Freq. (Hz)
FREQFINAL	QUANT	2.00000E-001	Final Freq. (Hz)
PTSPERDEC	QUANT	1.00000E+001	Points/decade
VAC	QUANT	5.00000E+001	A Real Number
AREA	QUANT	1.00000E+000	Sample Area (cm^2)
SPEED	SELECTOR	1	Optimize for:
DRIFTCOR	SELECTOR	0	Drift Correction
THD	SELECTOR	0	THD
ZGUESS	QUANT	1.00000E+002	Estimated Z (ohms)
EOC	QUANT	0	Open Circuit (V)
SEQUENCER	TOGGLE	TRUE	Run as Sequence
PSTATMODEL	IQUANT	5	Pstat Model
PSTATSECTION	LABEL	REF3000-46118	Pstat Section
PSTATSERIALNO	LABEL	46118	Pstat Serial Number
CTRLMODE	IQUANT	1	Control Mode
ELECTROMETER	IQUANT	0	RE=0 or CS=1
IESTAB	IQUANT	0	I/E Stability
CASPEED	IQUANT	3	Control Amp Speed
CONVENTION	IQUANT	1	Current Convention
ICHRANGE	IQUANT	2	Ich Range
ICHRANGEMODE	TOGGLE	F	Ich Auto Range
ICHOFFSETENABLE	TOGGLE	T	Ich Offset Enable
ICHOFFSET	QUANT	0	Ich Offset (V)
ICHFILTER	IQUANT	3	Ich Filter
VCHRANGE	IQUANT	2	Vch Range
VCHRANGEMODE	TOGGLE	F	Vch Auto Range
VCHOFFSETENABLE	TOGGLE	T	Vch Offset Enable
VCHOFFSET	QUANT	0	Vch Offset (V)
VCHFILTER	IQUANT	3	Vch Filter
ACHRANGE	IQUANT	2	Ach Range
ACHOFFSETENABLE	TOGGLE	F	Ach Offset Enable
ACHOFFSET	QUANT	0	Ach Offset (V)
ACHFILTER	IQUANT	1	Ach Filter
IERANGELOWERLIMIT	IQUANT	2	I/E Range Lower Limit
IERANGEMODE	TOGGLE	F	I/E AutoRange
IERANGE	IQUANT	11	I/E Range
POSFEEDENABLE	TOGGLE	F	Positive Feedback IR Comp
POSFEEDRESISTANCE	QUANT	0	Positive Feedback Resistance (ohm)
ACHSELECT	IQUANT	4	Ach Select
SENSECABLEID	IQUANT	14	Sense Cable ID
PWRCABLEID	IQUANT	7	Power Cable ID
DCCALDATE	LABEL	1/11/2024	DC Calibration Date
ACCALDATE	LABEL	1/11/2024	AC Calibration Date
THERMOSELECT	IQUANT	1	Thermo Select
FRAMEWORKVERSION	LABEL	7.10.3	Framework Version
INSTRUMENTVERSION	LABEL	4.91	Instrument Version
COMMVERSION	LABEL	5.10	Communications Version
CPUPLDVERSION	LABEL	6.00	CPU PLD Version
CTRLPLDVERSION	LABEL	3.21	CTRL PLD Version
PSTATPLDVERSION	LABEL	0.00	PSTAT PLD Version
COMPLIANCEVOLTAGE	IQUANT	0	Compliance Voltage
ZCURVE	TABLE
	Pt	Time	Freq	Zreal	Zimag	Zsig	Zmod	Zphz	Idc	Vdc	IERange	Imod	Vmod	Temp
	#	s	Hz	ohm	ohm	V	ohm	°	A	V	#	A	V	°C
	0	3	10078.13	46.05041	-4.24633	1	46.24577	-5.268373	6.694163E-007	-6.211762E-005	9	0.001081	0.049992	-327.5937
	1	4	8015.625	46.60769	-4.402198	1	46.81512	-5.395704	5.151142E-007	-6.480512E-005	9	0.0010692	0.0500523	-327.5937
	2	6	6328.125	47.19343	-4.60256	1	47.41733	-5.570181	6.503478E-007	-6.416504E-005	9	0.0010549	0.0500189	-327.5937
	3	7	5015.625	47.78397	-4.844712	1	48.02893	-5.789311	6.717746E-007	-6.376609E-005	9	0.0010414	0.0500151	-327.5937
	4	9	3984.375	48.39375	-5.144974	1	48.66647	-6.068597	5.511101E-007	-6.653182E-005	9	0.0010274	0.0500011	-327.5937
	5	10	3170.956	49.03897	-5.498986	1	49.34632	-6.398135	6.23907E-007	-6.168033E-005	9	0.0010132	0.0499993	-327.5937
	6	12	2527.573	49.73731	-5.917858	1	50.08813	-6.785283	6.110922E-007	-6.850058E-005	9	0.0009982	0.0499956	-327.5937
	7	13	1976.103	50.57182	-6.439489	1	50.98016	-7.256623	5.701986E-007	-6.486755E-005	9	0.0009806	0.0499894	-327.5937
	8	15	1577.524	51.42743	-6.971956	1	51.89787	-7.720453	7.178837E-007	-6.418052E-005	9	0.0009634	0.0500005	-327.5937
	9	16	1265.625	52.35059	-7.536336	1	52.89027	-8.191959	6.652044E-007	-6.628962E-005	9	0.0009453	0.0499956	-327.5937
	10	18	998.264	53.4482	-8.176315	1	54.06998	-8.697477	4.752999E-007	-7.092065E-005	9	0.0009245	0.0499879	-327.5937
	11	19	796.875	54.59729	-8.818049	1	55.30481	-9.174656	5.430834E-007	-6.904732E-005	9	0.0009041	0.0499984	-327.5937
	12	21	627.7902	55.90314	-9.51851	1	56.7077	-9.66296	4.956928E-007	-6.843782E-005	9	0.0008816	0.0499928	-327.5937
	13	23	505.5147	57.17818	-10.17919	1	58.07719	-10.09437	-6.86091E-008	-3.01721E-005	9	0.0008517	0.0492771	-327.5937
	14	24	397.9953	58.67104	-10.93435	1	59.68124	-10.55694	-1.906988E-007	-2.454844E-005	9	0.0008498	0.0505894	-327.5937
	15	26	315.5048	60.19865	-11.71365	1	61.32771	-11.01121	6.516359E-008	-2.98918E-005	9	0.0008194	0.0501697	-327.5937
	16	27	252.4038	61.74523	-12.52575	1	63.00292	-11.46751	-3.892828E-007	-2.81941E-005	9	0.000795	0.0500303	-327.5937
	17	29	198.6229	63.49289	-13.4868	1	64.90948	-11.9922	2.149673E-007	-2.540072E-005	9	0.0007704	0.0499746	-327.5937
	18	30	158.3615	65.24101	-14.49979	1	66.83288	-12.5303	1.555966E-007	-2.688738E-005	9	0.0007481	0.0499778	-327.5937
	19	32	125.558	67.14602	-15.66159	1	68.94833	-13.12932	1.924211E-007	-3.106862E-005	9	0.0007251	0.049978	-327.5937
	20	33	100.4464	69.10115	-16.92011	1	71.14252	-13.75873	3.770274E-007	-2.845191E-005	9	0.0007024	0.049964	-327.5937
	21	35	79.00281	71.35435	-18.44742	1	73.70042	-14.49543	4.682697E-007	-3.048233E-005	9	0.000678	0.0499645	-327.5937
	22	36	63.3446	73.59807	-20.03844	1	76.27722	-15.23065	1.435095E-007	-2.527972E-005	9	0.0006547	0.049933	-327.5937
	23	38	50.22321	76.13813	-21.91864	1	79.23031	-16.06005	9.968699E-007	-2.507743E-005	9	0.0006296	0.049882	-327.5937
	24	39	38.42213	79.34594	-24.42338	1	83.01975	-17.10883	1.709968E-006	-2.715818E-005	9	0.0005983	0.049668	-327.5937
	25	41	31.25	82.05959	-26.61659	1	86.2683	-17.97083	2.279225E-006	-2.312177E-005	9	0.0005725	0.0493915	-327.5937
	26	42	24.93351	85.27365	-29.28494	1	90.16209	-18.95366	-3.196233E-007	-2.618512E-005	9	0.0005383	0.0485345	-327.5937
	27	44	19.86229	89.21247	-32.52879	1	94.95782	-20.03295	-1.401586E-005	3.910065E-005	9	0.000564	0.0535533	-327.5937
	28	45	15.625	93.35661	-36.21409	1	100.1345	-21.20184	-1.218582E-005	3.989421E-005	9	0.0004993	0.0500007	-327.5937
	29	47	12.40079	97.7795	-40.22283	1	105.7294	-22.36043	-1.169971E-005	3.408713E-005	9	0.0004729	0.0500002	-327.5937
	30	48	9.93114	102.3416	-44.50073	1	111.598	-23.50063	-8.792566E-006	3.715036E-005	9	0.0004481	0.0500062	-327.5937
	31	50	7.944915	107.5852	-49.41412	1	118.3906	-24.66943	-8.605444E-006	3.827847E-005	9	0.0004224	0.0500044	-327.5937
	32	52	6.317385	113.5265	-55.04493	1	126.1674	-25.86709	-6.866998E-006	3.731916E-005	9	0.0003963	0.0500019	-327.5937
	33	54	5.008013	120.3489	-61.49074	1	135.1479	-27.06418	-6.546268E-006	3.924389E-005	9	0.00037	0.050003	-327.5937
	34	56	3.945707	128.1973	-68.83285	1	145.5078	-28.23265	-5.933584E-006	3.515677E-005	9	0.0003437	0.0500037	-327.5937
	35	58	3.158693	136.2692	-76.31231	1	156.1821	-29.24933	-5.220065E-006	3.685991E-005	9	0.0003202	0.0500043	-327.5937
	36	61	2.504006	145.6372	-84.36301	1	168.3072	-30.08235	-4.859186E-006	4.034786E-005	9	0.0002879	0.0485481	-327.5937
	37	65	1.998082	154.6816	-93.3982	1	180.6921	-31.12397	-4.013956E-006	4.170794E-005	9	0.0002813	0.0508926	-327.5937
	38	69	1.584686	163.7798	-103.8571	1	193.9332	-32.37986	-2.814208E-006	4.048529E-005	9	0.0002596	0.0503664	-327.5937
	39	73	1.266892	172.0186	-115.8005	1	207.3647	-33.94788	-1.914822E-006	4.271616E-005	9	0.0002417	0.0501387	-327.5937
	40	79	0.999041	180.1502	-131.7272	1	223.173	-36.17456	-1.705641E-006	4.288286E-005	9	0.0002243	0.0500573	-327.5937
	41	85	0.7923428	187.0394	-151.5754	1	240.7464	-39.02106	-9.974832E-007	4.203373E-005	9	0.0002078	0.0500219	-327.5937
	42	91	0.6334459	193.2071	-176.3833	1	261.6105	-42.3937	-5.763188E-007	4.281943E-005	9	0.0001911	0.0500085	-327.5937
	43	99	0.5040323	199.2931	-208.986	1	288.7783	-46.36	-3.120185E-007	4.260716E-005	9	0.0001732	0.0500047	-327.5937
	44	109	0.400641	205.6909	-251.1002	1	324.5921	-50.67708	-2.850144E-007	1.999691E-005	8	0.0001537	0.0498935	-327.5937
	45	120	0.316723	212.8097	-306.0096	1	372.7329	-55.1839	-1.965925E-007	1.8987E-005	8	0.0001342	0.0500268	-327.5937
	46	134	0.2520161	220.8554	-373.561	1	433.9642	-59.40772	-1.474552E-007	1.995467E-005	8	0.0001153	0.0500237	-327.5937
	47	152	0.2003205	230.5815	-458.7069	1	513.4003	-63.31237	-1.117004E-007	1.980127E-005	8	0.0000974	0.0500199	-327.5937