File: EISPOT_#4.DTA
EXPLAIN
TAG	EISPOT
TITLE	LABEL	Potentiostatic EIS	Test Identifier
DATE	LABEL	15-1-2024	Date
TIME	LABEL	12:48:22	Time
NOTES	NOTES	1	Notes...

PSTAT	PSTAT	REF3000-46118	Potentiostat
VDC	POTEN	0.00000E+000	T	DC Voltage (V)
FREQINIT	QUANT	1.00000E+004	Initial Freq. (Hz)
FREQFINAL	QUANT	2.00000E-001	Final Freq. (Hz)
PTSPERDEC	QUANT	1.00000E+001	Points/decade
VAC	QUANT	4.00000E+002	A Real Number
AREA	QUANT	1.00000E+000	Sample Area (cm^2)
SPEED	SELECTOR	1	Optimize for:
DRIFTCOR	SELECTOR	0	Drift Correction
THD	SELECTOR	0	THD
ZGUESS	QUANT	1.00000E+002	Estimated Z (ohms)
EOC	QUANT	0	Open Circuit (V)
SEQUENCER	TOGGLE	TRUE	Run as Sequence
PSTATMODEL	IQUANT	5	Pstat Model
PSTATSECTION	LABEL	REF3000-46118	Pstat Section
PSTATSERIALNO	LABEL	46118	Pstat Serial Number
CTRLMODE	IQUANT	1	Control Mode
ELECTROMETER	IQUANT	0	RE=0 or CS=1
IESTAB	IQUANT	0	I/E Stability
CASPEED	IQUANT	3	Control Amp Speed
CONVENTION	IQUANT	1	Current Convention
ICHRANGE	IQUANT	2	Ich Range
ICHRANGEMODE	TOGGLE	F	Ich Auto Range
ICHOFFSETENABLE	TOGGLE	T	Ich Offset Enable
ICHOFFSET	QUANT	0	Ich Offset (V)
ICHFILTER	IQUANT	3	Ich Filter
VCHRANGE	IQUANT	2	Vch Range
VCHRANGEMODE	TOGGLE	F	Vch Auto Range
VCHOFFSETENABLE	TOGGLE	T	Vch Offset Enable
VCHOFFSET	QUANT	0	Vch Offset (V)
VCHFILTER	IQUANT	3	Vch Filter
ACHRANGE	IQUANT	2	Ach Range
ACHOFFSETENABLE	TOGGLE	F	Ach Offset Enable
ACHOFFSET	QUANT	0	Ach Offset (V)
ACHFILTER	IQUANT	1	Ach Filter
IERANGELOWERLIMIT	IQUANT	2	I/E Range Lower Limit
IERANGEMODE	TOGGLE	F	I/E AutoRange
IERANGE	IQUANT	11	I/E Range
POSFEEDENABLE	TOGGLE	F	Positive Feedback IR Comp
POSFEEDRESISTANCE	QUANT	0	Positive Feedback Resistance (ohm)
ACHSELECT	IQUANT	4	Ach Select
SENSECABLEID	IQUANT	14	Sense Cable ID
PWRCABLEID	IQUANT	7	Power Cable ID
DCCALDATE	LABEL	1/11/2024	DC Calibration Date
ACCALDATE	LABEL	1/11/2024	AC Calibration Date
THERMOSELECT	IQUANT	1	Thermo Select
FRAMEWORKVERSION	LABEL	7.10.3	Framework Version
INSTRUMENTVERSION	LABEL	4.91	Instrument Version
COMMVERSION	LABEL	5.10	Communications Version
CPUPLDVERSION	LABEL	6.00	CPU PLD Version
CTRLPLDVERSION	LABEL	3.21	CTRL PLD Version
PSTATPLDVERSION	LABEL	0.00	PSTAT PLD Version
COMPLIANCEVOLTAGE	IQUANT	0	Compliance Voltage
ZCURVE	TABLE
	Pt	Time	Freq	Zreal	Zimag	Zsig	Zmod	Zphz	Idc	Vdc	IERange	Imod	Vmod	Temp
	#	s	Hz	ohm	ohm	V	ohm	°	A	V	#	A	V	°C
	0	3	10078.13	45.85246	-4.227043	1	46.04689	-5.267091	3.117311E-006	-0.000222	10	0.0086889	0.4000756	-327.5937
	1	5	8015.625	46.41145	-4.384985	1	46.61813	-5.397322	2.665933E-006	-0.0002319	10	0.0085841	0.4001628	-327.5937
	2	6	6328.125	46.99325	-4.58105	1	47.21601	-5.56778	2.167529E-006	-0.0002288	10	0.0084732	0.400065	-327.5937
	3	8	5015.625	47.58152	-4.818141	1	47.82484	-5.782105	2.407352E-006	-0.0002315	10	0.0083669	0.4001397	-327.5937
	4	9	3984.375	48.18359	-5.109884	1	48.45378	-6.053608	2.982531E-006	-0.0002331	10	0.0082546	0.3999633	-327.5937
	5	11	3170.956	48.81837	-5.456922	1	49.12241	-6.378051	2.334447E-006	-0.0002324	10	0.0081424	0.399972	-327.5937
	6	12	2527.573	49.50433	-5.865438	1	49.8506	-6.757092	2.621266E-006	-0.0002353	10	0.0080255	0.400076	-327.5937
	7	14	1976.103	50.32603	-6.373733	1	50.72803	-7.218016	2.093075E-006	-0.0002287	10	0.0078847	0.3999768	-327.5937
	8	15	1577.524	51.15718	-6.892637	1	51.61943	-7.673507	2.940196E-006	-0.0002317	10	0.0077481	0.3999496	-327.5937
	9	17	1265.625	52.0504	-7.442952	1	52.57986	-8.137849	2.709825E-006	-0.0002236	10	0.0076081	0.4000316	-327.5937
	10	18	998.264	53.11688	-8.075334	1	53.72721	-8.644456	1.760309E-006	-0.0002264	10	0.0074436	0.3999245	-327.5937
	11	20	796.875	54.2157	-8.70822	1	54.91061	-9.125009	1.935288E-006	-0.0002305	10	0.0072849	0.4000192	-327.5937
	12	21	627.7902	55.49098	-9.401767	1	56.28181	-9.61623	2.301738E-006	-0.0002335	10	0.0071065	0.3999693	-327.5937
	13	23	505.5147	56.72441	-10.06517	1	57.61047	-10.06182	2.511395E-006	-0.0002473	10	0.0068693	0.3942464	-327.5937
	14	24	397.9953	58.17065	-10.82062	1	59.16849	-10.53745	1.617082E-006	-0.0002466	10	0.0068564	0.4046494	-327.5937
	15	26	315.5048	59.66702	-11.60397	1	60.78491	-11.00544	1.5037E-006	-0.0002554	10	0.0066132	0.4013163	-327.5937
	16	27	252.4038	61.18239	-12.41567	1	62.42943	-11.4712	7.890994E-007	-0.0002607	10	0.0064184	0.4002638	-327.5937
	17	29	198.6229	62.89672	-13.3704	1	64.30214	-12.00112	1.920929E-006	-0.0002552	10	0.0062225	0.3998499	-327.5937
	18	30	158.3615	64.607	-14.37122	1	66.18608	-12.54073	2.524532E-006	-0.0002506	10	0.0060437	0.3998363	-327.5937
	19	32	125.558	66.47198	-15.52306	1	68.26045	-13.1446	5.269681E-006	-0.0002433	10	0.0058573	0.3997116	-327.5937
	20	33	100.4464	68.38384	-16.76018	1	70.40777	-13.77115	-3.399469E-006	-0.0002413	10	0.005679	0.3997786	-327.5937
	21	35	79.00281	70.58833	-18.26484	1	72.91308	-14.50719	2.707027E-006	-0.0002447	10	0.0054828	0.3997226	-327.5937
	22	36	63.3446	72.77099	-19.83035	1	75.42453	-15.24319	7.57688E-006	-0.000246	10	0.0052959	0.3994146	-327.5937
	23	38	50.22321	75.25172	-21.68592	1	78.31412	-16.07584	1.926481E-006	-0.000236	10	0.0050949	0.3989867	-327.5937
	24	40	38.42213	78.39203	-24.13944	1	82.02453	-17.11529	1.304621E-005	-0.0002428	10	0.0048441	0.3973211	-327.5937
	25	41	31.25	81.02377	-26.29133	1	85.18266	-17.97768	-5.690785E-006	-0.0002923	10	0.0046382	0.3950854	-327.5937
	26	43	24.93351	84.20512	-28.93368	1	89.03741	-18.96321	1.941977E-005	-0.0002488	10	0.0043611	0.3883006	-327.5937
	27	44	19.86229	87.92735	-32.05009	1	93.58646	-20.02713	-0.0001133	-0.0001948	10	0.0045788	0.4285147	-327.5937
	28	46	15.625	92.07043	-35.68625	1	98.7445	-21.1862	-0.0000993	-0.0001859	10	0.0040508	0.3999908	-327.5937
	29	47	12.40079	96.3617	-39.58782	1	104.1767	-22.33409	-9.473565E-005	-0.0001942	10	0.0038397	0.4000103	-327.5937
	30	48	9.93114	100.7461	-43.71572	1	109.8219	-23.45697	-7.21692E-005	-0.0002019	10	0.0036422	0.3999937	-327.5937
	31	50	7.944915	105.8007	-48.46076	1	116.3711	-24.60959	-7.016463E-005	-0.0001995	10	0.0034373	0.4000044	-327.5937
	32	52	6.317385	111.4986	-53.86554	1	123.8282	-25.78543	-5.600704E-005	-0.0001975	10	0.0032303	0.3999987	-327.5937
	33	54	5.008013	118.0453	-60.03424	1	132.4341	-26.9565	-5.280798E-005	-0.0001924	10	0.0030204	0.4000075	-327.5937
	34	56	3.945707	125.5563	-67.03779	1	142.3321	-28.09893	-4.791195E-005	-0.0001964	10	0.0028103	0.4000002	-327.5937
	35	59	3.158693	133.2657	-74.14609	1	152.5037	-29.0906	-4.216623E-005	-0.0001925	10	0.0026229	0.4000017	-327.5937
	36	62	2.504006	142.1935	-81.78625	1	164.0365	-29.90646	-3.991673E-005	-0.0001855	10	0.0023625	0.3883407	-327.5937
	37	65	1.998082	150.701	-90.18258	1	175.6237	-30.89718	-3.298874E-005	-0.0001825	10	0.0023156	0.4071322	-327.5937
	38	69	1.584686	159.568	-100.0826	1	188.3573	-32.09632	-2.402196E-005	-0.0001842	10	0.0021378	0.4029208	-327.5937
	39	74	1.266892	167.7111	-111.2427	1	201.251	-33.5563	-1.70185E-005	-0.0001844	10	0.0019923	0.4011003	-327.5937
	40	79	0.999041	175.9607	-125.8676	1	216.3443	-35.57676	-1.58906E-005	-0.0001869	10	0.0018506	0.4004378	-327.5937
	41	85	0.7923428	183.2872	-143.6647	1	232.8813	-38.09016	-1.004585E-005	-0.0001864	9	0.0017174	0.4000045	-327.5937
	42	92	0.6334459	190.2675	-165.3896	1	252.1021	-40.99872	-6.363626E-006	-0.0001886	9	0.0015868	0.400068	-327.5937
	43	99	0.5040323	197.7464	-193.3056	1	276.5333	-44.34938	-4.119999E-006	-0.0001885	9	0.0014466	0.4000395	-327.5937
	44	109	0.400641	206.1177	-228.4549	1	307.6949	-47.94243	-2.72678E-006	-0.000188	9	0.0013	0.4000295	-327.5937
	45	120	0.316723	216.1503	-273.4365	1	348.5519	-51.6738	-1.902209E-006	-0.0001925	9	0.0011477	0.4000258	-327.5937
	46	135	0.2520161	227.8654	-327.8161	1	399.2318	-55.19679	-1.333362E-006	-0.0001898	9	0.001002	0.4000255	-327.5937
	47	152	0.2003205	242.1571	-395.4382	1	463.6932	-58.51767	-9.851365E-007	-0.0001901	9	0.0008627	0.4000244	-327.5937